File name:	ALC022
Date:	1/31/2001
UTM Grid Zone:	10S
"UTM-X, m:"	567175
"UTM-Y, m:"	4179980
Datum:	1927 NAD
"Elevation, m:"	6.5
"Total depth, m:"	13.8
"Water depth, m:"	1.6
City:	Alameda
County:	Alameda
State:	CA
USGS Quadrangle:	Oakland East
Cone No.:	660
Source:	USGS
"Surface horiz. offset (seismic source to CPT), m:"	0.96

Depth (m)	Tip Resistance (MN/m2)	Sleeve Friction (kN/m2)	Inclination (degree)	S-wave travel time (ms)
0.05	29.71	284.4	4.11	
0.1	115.7	608.5	0.46	
0.15	55.61	548.6	0.14	
0.2	36.3	476.2	0.16	
0.25	27.76	405	0.14	
0.3	21.69	404.3	0.18	
0.35	15.24	273.5	0.22	
0.4	10.56	143.9	0.24	
0.45	8.52	104.8	0.27	
0.5	6.89	77	0.31	
0.55	5.87	60.2	0.32	
0.6	5.3	56.8	0.32	
0.65	4.91	51.5	0.42	
0.7	4.42	44.8	0.44	
0.75	4.11	40.5	0.44
0.8	3.39	37.1	0.44
0.85	3.23	35.3	0.44
0.9	3.2	35	0.51
0.95	3.11	34.4	0.52
1	3.2	35.3	0.51
1.05	3.14	34.4	0.55
1.1	3.06	33.7	0.55
1.15	3.03	32.2	0.56
1.2	3.03	31.7	0.57
1.25	3.1	32.9	0.6
1.3	2.51	26.7	0.6
1.35	2.09	43.9	0.61
1.4	2.1	74.9	0.61
1.45	2.47	89.5	0.61
1.5	2.76	63.7	0.6
1.55	1.99	68.3	0.61	
1.6	3.45	97	0.59	
1.65	3.43	101.9	0.59	
1.7	2.25	69.9	0.59	
1.75	1.76	38.6	0.58	11.2	
1.8	1.79	41.8	0.57	
1.85	2	64.7	0.57	
1.9	5.23	134.6	0.57	
1.95	5.45	188.8	0.7	
2	4.62	184.6	0.81	
2.05	4.04	152.5	0.81	
2.1	3.33	114.3	0.81	
2.15	2.64	149	0.82	
2.2	6.85	192.8	0.81	
2.25	10.32	264.9	0.82	
2.3	12.32	331.4	0.85	
2.35	15.47	387.7	0.84
2.4	19.21	437.9	1.06
2.45	20.14	472.6	1.14
2.5	21.46	476.1	1.15
2.55	23.2	477.3	1.16
2.6	24.37	464.6	1.16
2.65	25.08	445.8	1.17
2.7	25.45	392.8	1.25
2.75	24.9	421.2	1.32
2.8	24.08	425.8	1.34
2.85	24.24	408.4	1.39
2.9	23.86	377.8	1.41
2.95	23.67	355	1.42
3	22.99	338.6	1.5
3.05	21.75	290.3	1.51
3.1	19.34	213.1	1.59
3.15	17.64	168.3	1.62
3.2	17.44	199.3	1.68
3.25	19.03	229.4	1.71
3.3	20.65	193.7	1.71
3.35	21.34	199.9	1.71
3.4	20.9	226.7	1.71
3.45	21.25	278.4	1.72
3.5	22.43	326.2	1.72
3.55	23.49	362.4	1.75
3.6	24.32	352.4	1.8
3.65	25.59	325.2	1.83
3.7	26.52	286.5	1.84
3.75	26.09	325.5	1.84	16.29
3.8	23.98	269.6	1.93
3.85	22.53	246.2	1.93
3.9	21.17	245.8	2.01
3.95	20.59	205.1	2.02	
4	22.35	326.8	2.02	
4.05	23	350.1	2.07	
4.1	23.66	357.8	2.07	
4.15	23.84	327.3	2.09	
4.2	23.42	283.8	2.12	
4.25	23.14	268.2	2.14	
4.3	23.44	250.7	2.18	
4.35	23.97	248	2.19	
4.4	25.15	243.2	2.2	
4.45	26.1	230.1	2.22	
4.5	26.22	285.2	2.24	
4.55	23.57	263.3	2.24	
4.6	21.06	231.1	2.27	
4.65	18.86	159	2.28	
4.7	16.99	104.7	2.29	
4.75	16.11	86.1	2.27
4.8	15.28	130.9	2.29
4.85	14.44	117.3	2.31
4.9	12.9	111.1	2.33
4.95	12.04	113.1	2.33
5	13.45	111.4	2.43
5.05	13.64	122	2.44
5.1	14.08	128.8	2.45
5.15	15.4	130.3	2.45
5.2	16.73	142.6	2.48
5.25	17.63	146.7	2.54
5.3	18.72	118.3	2.54
5.35	19.16	118.1	2.55
5.4	18.47	132.3	2.57
5.45	17.8	146.5	2.58
5.5	18.29	143.4	2.59
5.55	19.24	119.7	2.67	
5.6	19.29	149.4	2.68	
5.65	18.51	175.1	2.69	
5.7	18.36	186.5	2.69	
5.75	18.06	251.1	2.72	24.27
5.8	16.8	289.1	2.8	
5.85	15.65	289.3	2.81	
5.9	14.36	203.8	2.82	
5.95	12.91	225.3	2.91	
6	11.58	245	2.91	
6.05	12.62	270	2.91	
6.1	15.44	377.5	2.94	
6.15	18.66	472.9	2.95	
6.2	21.33	501.6	2.97	
6.25	22.75	504.6	3.02	
6.3	22.37	482.2	3.09	
6.35	20.94	466.7	3.09
6.4	20.97	500.1	3.09
6.45	21.22	509.9	3.09
6.5	20.78	524.2	3.09
6.55	21.43	539.6	3.09
6.6	21.84	556.3	3.1
6.65	23.38	530.8	3.1
6.7	23.93	374.4	3.09
6.75	25.7	494.2	3.1
6.8	24.5	542.9	3.31
6.85	15.4	195.5	3.3
6.9	9.2	194	3.62
6.95	5.75	72	3.6
7	5.67	27.5	4.17
7.05	4.4	14.2	4.07
7.1	4.09	30.9	3.35
7.15	4.65	185	3.64
7.2	9.66	373.7	3.78
7.25	11.67	503.9	3.79
7.3	12.87	551	3.83
7.35	14.36	587.5	3.9
7.4	13.78	590.2	3.92
7.45	10.84	444.3	3.98
7.5	11.18	303.1	4.08
7.55	13.39	288.8	4.03
7.6	14.57	97.4	4.04
7.65	10.89	59.3	4.03
7.7	6.61	114.7	4.03
7.75	5.76	215.1	4.18
7.8	7.19	325.1	4.19	35.61
7.85	7.81	383	4.28	
7.9	8.79	392.8	4.33
7.95	7.84	372.5	4.33	
8	7.42	321.9	4.34	
8.05	6.92	395.7	4.42	
8.1	7.28	387.3	4.57	
8.15	6.84	348.9	4.59	
8.2	6.17	314.6	4.67	
8.25	6.12	348.2	4.75	
8.3	5.9	339.7	4.8	
8.35	6.02	213.9	4.88	
8.4	6.32	122.7	4.9	
8.45	6.35	101.5	4.94	
8.5	7.17	124.8	4.95	
8.55	9.72	173.1	4.99	
8.6	13.29	224	5.02	
8.65	17.19	278.7	5.04	
8.7	19.59	283.8	5.06	
8.75	19.82	374.4	5.14
8.8	18.88	428	5.19
8.85	18.65	396.3	5.19
8.9	19.6	440.4	5.2
8.95	21.33	485.4	5.28
9	22.97	500	5.29
9.05	22.55	477.5	5.29
9.1	20.43	506.6	5.32
9.15	20.52	540.2	5.33
9.2	20.49	509.2	5.33
9.25	20.39	503.3	5.33
9.3	21.01	530.8	5.34
9.35	21.37	542.9	5.34
9.4	21.77	565.7	5.57
9.45	22.44	558	5.58
9.5	23.45	477.4	5.62
9.55	23.86	335.8	5.68	
9.6	23.97	325.4	5.68	
9.65	23.34	364.1	5.68	
9.7	23.16	474.2	5.69	
9.75	23.58	564.9	5.7	40.53
9.8	23.21	609.8	5.7	
9.85	23.38	637.1	5.78	
9.9	23.73	664.9	5.78	
9.95	24.05	550	5.78	
10	24.44	499.9	5.78	
10.05	24.5	588.5	5.76	
10.1	24.9	639.5	5.76	
10.15	26.47	482.5	5.76	
10.2	28.48	446.2	5.76	
10.25	27.39	392.8	6.02	
10.3	29.12	331.3	6.03	
10.35	28.29	341.1	6.12
10.4	27.05	310.7	6.15
10.45	25.43	311.4	6.21
10.5	24.61	268.7	6.22
10.55	23.9	275.4	6.23
10.6	22.92	356	6.26
10.65	19.65	427.4	6.32
10.7	19.1	360.4	6.36
10.75	20.49	299.5	6.37
10.8	21.68	411.1	6.43
10.85	23.13	590.4	6.49
10.9	24.23	734.7	6.52
10.95	26.78	701.5	6.54
11	27.81	637.5	6.55
11.05	28.24	744.8	6.6
11.1	29.94	928.6	6.59
11.15	33.48	947.3	6.66
11.2	37.23	805.2	6.66
11.25	37.53	676.3	6.76
11.3	36.29	726.4	6.76
11.35	36.21	782.2	6.76
11.4	36.72	707.7	6.76
11.45	38.02	539.2	6.76
11.5	37.72	485.4	6.76
11.55	36.23	536.9	6.76
11.6	34.88	538.9	6.76
11.65	32.48	560.9	6.76
11.7	31.58	548.8	6.75
11.75	32.08	690.7	6.76	46.98
11.8	32.74	692.6	6.95
11.85	33.77	607.2	6.95
11.9	35.45	632	6.95
11.95	36.3	600	6.95	
12	33.81	580.2	6.96	
12.05	30	531.4	6.98	
12.1	27.01	436.8	6.96	
12.15	22.76	422.3	6.96	
12.2	21.51	433.7	6.97	
12.25	17.42	380.7	6.97	
12.3	18.5	385.8	6.97	
12.35	22.32	455.8	7.13	
12.4	26.48	543.1	7.15	
12.45	28.72	598.1	7.18	
12.5	30.54	638.2	7.19	
12.55	31.45	617.2	7.19	
12.6	32.09	633.8	7.2	
12.65	32.3	643.2	7.2	
12.7	32.39	613.8	7.2	
12.75	32.15	552.7	7.21
12.8	33.31	476.4	7.2
12.85	35.52	573.9	7.2
12.9	37	606	7.19
12.95	38.51	550.8	7.19
13	39.46	491.8	7.2
13.05	39.65	387.1	7.19
13.1	38.96	392.7	7.18
13.15	37.73	489.2	7.19
13.2	39.77	572.6	7.19
13.25	41.79	523.1	7.76
13.3	43.7	394.5	7.7
13.35	44.69	272.4	7.71
13.4	44.79	231	7.77
13.45	45.17	220	7.81
13.5	45.57	245.7	7.85
13.55	46.43	333.9	7.86	52.38
13.6	47.38	501.5	7.9	
13.65	49.32	734.3	7.9	
13.7	49.54	925.8	7.96	
13.75	47.7	-32768	7.97	
13.8	39.49	-32768	7.97	
