File name:	ALC023
Date:	1/31/2001
UTM Grid Zone:	10S
"UTM-X, m:"	562651
"UTM-Y, m:"	4180855
Datum:	1927 NAD
"Elevation, m:"	2.7
"Total depth, m:"	13.55
"Water depth, m:"	1.5
City:	Alameda
County:	Alameda
State:	CA
USGS Quadrangle:	Oakland West
Cone No.:	660
Source:	USGS
"Surface horiz. offset (seismic source to CPT), m:"	0.96

Depth (m)	Tip Resistance (MN/m2)	Sleeve Friction (kN/m2)	Inclination (degree)	S-wave travel time (ms)
0.05	42.07	226.1	0.1	
0.1	27.21	265	0.07	
0.15	22.37	214.7	0.07	
0.2	16.06	214.7	0.05	
0.25	12.17	186.3	0.05	
0.3	10.15	153.2	0.04	
0.35	8.7	110.6	0.04	
0.4	7.39	90.5	0.04	
0.45	6.46	73	0.04	
0.5	5.89	60.2	0.04	
0.55	5.36	49.1	0.04	
0.6	4.75	40.4	0.03	
0.65	4.19	33.6	0.05	
0.7	3.61	26.5	0.04	
0.75	3.36	17.3	0.04
0.8	3.03	16.4	0.05
0.85	2.74	13.5	0.03
0.9	2.51	11.6	0.04
0.95	2.27	11.6	0.05
1	2.07	10	0.05
1.05	1.8	7.8	0.05
1.1	1.72	5	0.03
1.15	1.72	4	0.04
1.2	2.14	3.9	0.04
1.25	2.48	5.1	0.04
1.3	2.4	5.8	0.04
1.35	1.57	11.7	0.05
1.4	1.49	19.7	0.03
1.45	1.91	38.6	0.04
1.5	2.47	55.6	0.04
1.55	2.31	81.6	0.06	
1.6	2.59	112	0.04	
1.65	4.96	140.7	0.05	
1.7	6.51	201	0.06	
1.75	7.8	201.2	0.05	11.37
1.8	10.12	349.5	0.05	
1.85	10.47	435.9	0.05	
1.9	10.4	486.9	0.06	
1.95	14.65	576.6	0.06	
2	17.82	672.9	0.05	
2.05	20.63	739.4	0.05	
2.1	17.27	709.9	0.05	
2.15	11.69	495.1	0.06	
2.2	8.52	299.9	0.05	
2.25	6.83	184.7	0.05	
2.3	6.43	202.1	0.05	
2.35	6.1	265	0.05
2.4	7.47	235.7	0.05
2.45	7.26	290	0.04
2.5	7.38	327.8	0.05
2.55	10.02	412.5	0.06
2.6	8.41	400.6	0.06
2.65	7.93	367.9	0.07
2.7	10.39	401.8	0.06
2.75	12.2	420.2	0.06
2.8	12.58	430.2	0.07
2.85	12.43	332.9	0.07
2.9	8.43	323.4	0.09
2.95	8.76	342.6	0.09
3	17.43	441.1	0.1
3.05	21.63	484	0.09
3.1	21.21	585.4	0.1
3.15	16.31	639.6	0.11
3.2	15.45	624.1	0.13
3.25	15.62	579.8	0.13
3.3	18.09	539.6	0.13
3.35	20.03	505.7	0.23
3.4	21.31	576.2	0.23
3.45	21.18	694.9	0.28
3.5	20.97	853.6	0.31
3.55	20.58	960	0.34
3.6	23.23	982	0.34
3.65	24.8	997.3	0.37
3.7	25.43	913.4	0.38
3.75	24.29	642.2	0.43	20.54
3.8	23.49	556.1	0.44
3.85	21.52	504.3	0.46
3.9	19.77	421.8	0.46
3.95	17.82	257.2	0.46	
4	16.93	345	0.6	
4.05	16.25	373.1	0.58	
4.1	16.08	344.1	0.58	
4.15	16.62	321.2	0.58	
4.2	18.71	379.1	0.57	
4.25	20.42	511.4	0.6	
4.3	20.25	635.7	0.64	
4.35	19.74	700.3	0.67	
4.4	20.22	679.8	0.71	
4.45	19.21	610.7	0.72	
4.5	18.05	561.6	0.75	
4.55	17.68	534.2	0.76	
4.6	17.5	536.1	0.79	
4.65	19.25	503.4	0.81	
4.7	20.14	506.3	0.81	
4.75	18.72	483	0.83
4.8	18.31	467.9	0.82
4.85	19.13	491	0.97
4.9	21.68	530.2	0.92
4.95	24.77	563.6	0.9
5	26.15	568.8	0.99
5.05	25.17	571.7	0.99
5.1	23.36	617.4	0.98
5.15	23.96	632.8	1.08
5.2	25.52	572.2	0.99
5.25	25.37	515.9	1.02
5.3	23.99	505.8	0.99
5.35	24.3	446.2	1
5.4	24.69	380.8	1.01
5.45	25.95	409.9	1.46
5.5	25.75	421.4	1.26
5.55	26.08	380.3	1.27	
5.6	25.07	359.8	1.59	
5.65	24.65	246.7	1.07	
5.7	24.72	240.4	1.14	
5.75	22.39	252.2	1.14	28.01
5.8	24.3	228	1.15	
5.85	23.36	266.4	1.15	
5.9	22.48	332.5	1.15	
5.95	21.69	222.4	1.15	
6	22.62	409.8	1.14	
6.05	23.24	409.8	1.63	
6.1	22.5	409.1	1.61	
6.15	22.41	409.7	1.62	
6.2	22.42	417.9	1.62	
6.25	22.39	427.6	1.62	
6.3	28.02	394.2	1.61	
6.35	26.33	368.4	1.62
6.4	23.11	251.5	1.62
6.45	21.89	246	1.69
6.5	24.16	331.3	1.57
6.55	26.69	397.9	1.74
6.6	28.5	486.5	1.76
6.65	30.79	614.8	1.78
6.7	33.12	358.4	1.78
6.75	32.22	525.3	1.81
6.8	27.87	565.5	1.92
6.85	23.08	599.2	1.93
6.9	20.33	572.6	1.93
6.95	15.8	393.1	1.93
7	12.66	349.9	2.05
7.05	13.57	351.3	2.06
7.1	14.57	364.5	2.02
7.15	17.11	430.7	2.07
7.2	19.05	459.4	2.09
7.25	20.42	413	2.09
7.3	20.53	320	2.08
7.35	20.35	291.7	2.22
7.4	19.87	270.9	2.24
7.45	19.1	241.4	2.33
7.5	18.72	266.2	2.2
7.55	18.32	290.6	2.27
7.6	18.43	245.3	2.27
7.65	19.21	288.5	2.33
7.7	20.71	240.9	2.36
7.75	23.01	340.6	2.38	34.46
7.8	23.36	426.4	2.62
7.85	22.04	464.8	2.7
7.9	21.09	553.6	2.51
7.95	17.6	406.2	2.52	
8	15.21	537.2	2.52	
8.05	17.29	578.3	2.54	
8.1	19.62	531.1	2.53	
8.15	19.99	460.7	2.53	
8.2	19.52	411.1	2.54	
8.25	19.42	442.2	2.54	
8.3	19.75	445.1	2.54	
8.35	19.93	392.6	2.61	
8.4	20.04	319.3	2.58	
8.45	20.46	323.2	2.62	
8.5	20.59	280.5	2.7	
8.55	20.5	283.6	2.64	
8.6	19.93	355.7	2.71	
8.65	20.64	442.7	2.7	
8.7	21.92	471.8	2.7	
8.75	22.66	408.8	2.72
8.8	24.29	519.8	2.72
8.85	26.78	557.9	2.83
8.9	28.98	553.3	2.83
8.95	31.44	612.1	2.84
9	29.28	582.4	2.84
9.05	28.06	469	3.01
9.1	29.79	494	3.1
9.15	33.08	599	3.13
9.2	34.18	666.8	3.14
9.25	31.92	630.1	3.15
9.3	30.46	541.2	3.19
9.35	29.28	491.5	3.23
9.4	28.6	520.3	3.24
9.45	27.55	645.6	3.27
9.5	26.29	680.8	3.32
9.55	23.74	541.1	3.34	
9.6	21.92	386.1	3.36	
9.65	21.27	422	3.44	
9.7	22.56	400	3.45	
9.75	24.59	390.1	3.54	41.21	
9.8	24.4	407.9	3.58	
9.85	24.35	421.1	3.58	
9.9	22.8	459.4	3.63	
9.95	20.73	400	3.65	
10	21.37	397.5	3.66	
10.05	22	509.8	3.73	
10.1	23.49	575.3	3.73	
10.15	29.22	444.8	3.76	
10.2	35.78	544.2	3.79	
10.25	34.33	673.1	3.8	
10.3	39.63	718.3	3.82	
10.35	41.61	788.5	3.9
10.4	40.68	823.6	3.92
10.45	39.28	845.4	3.93
10.5	37.46	811.3	3.98
10.55	36.73	766.6	4
10.6	34.71	731.3	4.04
10.65	33.39	730.1	4.05
10.7	35.01	754.8	4.07
10.75	35.1	662.2	4.1
10.8	32.38	600	4.1
10.85	30.04	593.6	4.1
10.9	29	550.1	4.18
10.95	28.07	461.2	4.19
11	28.88	450	4.22
11.05	31.09	447.2	4.23
11.1	28	483.9	4.24
11.15	23.98	567.3	4.25
11.2	31.14	577.2	4.27
11.25	30.04	558.9	4.28
11.3	28.13	491.5	4.29
11.35	26.55	423.4	4.28
11.4	25.23	352.4	4.29
11.45	23.46	272.8	4.29
11.5	20.2	376.7	4.29
11.55	17.99	558.2	4.3
11.6	29.6	495	4.41
11.65	35.07	691.1	4.41
11.7	33.44	772.6	4.4
11.75	30.64	732.8	4.44	47.43
11.8	24.4	610.6	4.49
11.85	16.15	222.6	4.5
11.9	14.14	154.8	4.54
11.95	13.2	261.8	4.56	
12	13.46	238.1	4.59	
12.05	13.62	312.7	4.63	
12.1	13.23	361.7	4.64	
12.15	12.6	352.1	4.63	
12.2	12.12	392.8	4.63	
12.25	10.55	444.1	4.52	
12.3	10.2	416.2	4.57	
12.35	9.88	390.1	4.55	
12.4	9.35	392.2	4.45	
12.45	9.39	408.3	4.26	
12.5	10.01	355	4.28	
12.55	9.48	213.6	4.5	
12.6	8.06	62.2	4.73	
12.65	6.5	127.1	4.34	
12.7	7.28	169.5	4.56	
12.75	8.26	369	4.61
12.8	10.26	643.8	4.59
12.85	15.58	931.4	4.63
12.9	17.56	1073.5	4.65
12.95	17.6	1113.3	4.65
13	17.64	1058.7	4.85
13.05	17.27	937.3	4.87
13.1	16.06	687.8	4.51
13.15	9.49	627.7	4.5
13.2	14.75	802.9	4.92
13.25	18.53	1034	4.9
13.3	17.76	1001.1	4.96	52.68
13.35	14.95	847.4	4.92
13.4	12.64	788.3	4.73
13.45	13.86	854.4	5.26
13.5	16.29	-32768	4.8
13.55	19.87	-32768	5.13	
