File name:	ALC026
Date:	2/1/2001
UTM Grid Zone:	10S
"UTM-X, m:"	564242
"UTM-Y, m:"	4180148
Datum:	1927 NAD
"Elevation, m:"	3
"Total depth, m:"	24
"Water depth, m:"	0.7
City:	Alameda
County:	Alameda
State:	CA
USGS Quadrangle:	Oakland West
Cone No.:	660
Source:	USGS
"Surface horiz. offset (seismic source to CPT), m:"	0.96

Depth (m)	Tip Resistance (MN/m2)	Sleeve Friction (kN/m2)	Inclination (degree)	S-wave travel time (ms)
0.05	22.47	1039	0.07	
0.1	56.27	909.2	0.24	
0.15	42.52	753.6	0.25	
0.2	38.58	671.7	0.23	
0.25	37.23	542.4	0.3	
0.3	36.84	527.3	0.36	
0.35	35.51	481.3	0.38	
0.4	34.45	505.1	0.41	
0.45	32.78	502.7	0.41	
0.5	31.97	444.9	0.4	
0.55	29.54	399.4	0.42	
0.6	28.8	318.6	0.44	
0.65	27.87	370.8	0.47	
0.7	24.4	357.7	0.47	
0.75	24.32	318.9	0.48
0.8	24.64	280.5	0.47
0.85	24.7	268.9	0.48
0.9	24.43	246.7	0.48
0.95	23.5	232.6	0.55
1	22.04	246.7	0.63
1.05	20.76	265	0.46
1.1	19.73	251.5	0.54
1.15	19.62	203.6	0.52
1.2	19.39	183.4	0.51
1.25	19.15	187.7	0.66
1.3	18.88	200.2	0.73
1.35	17.95	203.3	0.57
1.4	17.21	194	0.6
1.45	18.01	185	0.65
1.5	17.95	200.5	0.65
1.55	17.56	200	0.66	
1.6	17.49	193.9	0.66	
1.65	17.26	170.9	0.67	
1.7	16.73	168.8	0.72	
1.75	14.38	164.7	0.72	9.67	
1.8	15.31	154.4	0.71	
1.85	14.49	146.4	0.72	
1.9	13.45	135.9	0.68	
1.95	12.37	128	0.75	
2	11.21	127.1	0.65	
2.05	9.76	109.5	0.68	
2.1	9.74	95.6	0.76	
2.15	9.74	88.1	0.65	
2.2	8.63	83.5	0.85	
2.25	7.16	66.9	1	
2.3	5.97	71.4	0.53	
2.35	5.34	71	0.6
2.4	6.26	59	0.77
2.45	7.02	72.7	0.78
2.5	6.83	74.6	0.9
2.55	7.86	76.1	0.7
2.6	9.37	81.1	0.85
2.65	9.22	75.9	0.85
2.7	9.69	71.5	0.85
2.75	10.37	75.1	0.86
2.8	11.57	84.8	0.91
2.85	12.11	123.8	0.91
2.9	12.79	150.3	0.92
2.95	13.61	129.9	0.95
3	14.2	64.1	0.95
3.05	12.61	66.1	0.96
3.1	9.28	36.6	1.04
3.15	6.49	34.4	1.01
3.2	5.24	56.1	1.04
3.25	6.04	105.7	1.05
3.3	6.76	95.3	1.08
3.35	7.79	61.4	1.08
3.4	8.21	98.1	1.09
3.45	9.01	67.6	1.2
3.5	9.63	48.7	1.21
3.55	7	28.5	1.21
3.6	5.01	43.8	1.21
3.65	7.25	27	1.23
3.7	11.28	26.4	1.23
3.75	12.08	38	1.24	19.87
3.8	12.02	28.7	1.23
3.85	11.56	13.4	1.24
3.9	10.12	24	1.24
3.95	8.5	37.8	1.24	
4	8.78	44.3	1.29	
4.05	10.01	71.5	1.3	
4.1	10.84	117.9	1.3	
4.15	11.86	177.1	1.3	
4.2	12.94	212.2	1.3	
4.25	13.7	237.9	1.44	
4.3	14.57	321.7	1.42	
4.35	16.73	390.7	1.42	
4.4	19.91	437.3	1.47	
4.45	21.96	466.2	1.48	
4.5	22.95	460.8	1.48	
4.55	23.5	423.7	1.52	
4.6	23.62	389.8	1.52	
4.65	22.74	378.9	1.54	
4.7	21.82	411.4	1.56	
4.75	21.37	329.6	1.57
4.8	19.39	215	1.57
4.85	16.18	203.2	1.59
4.9	15.47	153.9	1.75
4.95	16.64	140.2	1.77
5	18.27	164.7	1.73
5.05	20.65	233	1.73
5.1	23	318.6	1.83
5.15	22.76	320	1.83
5.2	20.08	163.1	1.84
5.25	17.1	164.7	1.84
5.3	17.07	213.7	1.84
5.35	19.35	201.2	1.84
5.4	20.71	160.1	1.85
5.45	19.87	138.4	1.96
5.5	19.08	105.3	1.97
5.55	20.04	101.5	2.02	
5.6	20.34	110.3	2.02	
5.65	20.08	109.9	2.02	
5.7	18.56	111.3	2.03	
5.75	16.73	133.8	2.05	28.49
5.8	16.11	117.6	2.14	
5.85	17.68	150.8	2.18	
5.9	19.04	170	2.18	
5.95	20.36	198	2.18	
6	20.74	225	2.19	
6.05	20.09	214.2	2.18	
6.1	19.21	225.6	2.28	
6.15	18.61	215.5	2.29	
6.2	18.63	225.5	2.29	
6.25	18.55	235.2	2.3	
6.3	18.69	228.6	2.3	
6.35	18.76	199	2.3
6.4	19.45	191.7	2.31
6.45	20.57	197.6	2.39
6.5	20.74	164.3	2.4
6.55	18.47	172.7	2.4
6.6	16.45	202.8	2.4
6.65	19.19	140.6	2.41
6.7	22.08	207.4	2.41
6.75	22.95	252.1	2.43
6.8	23.24	248.2	2.44
6.85	20.56	218.1	2.46
6.9	19.25	167.8	2.46
6.95	17.93	164	2.47
7	15.62	162.8	2.57
7.05	13.71	145.2	2.58
7.1	12.07	128.3	2.57
7.15	10.23	145.8	2.58
7.2	10.31	131.7	2.62
7.25	12.96	92	2.63
7.3	16.49	134.5	2.62
7.35	18.76	201.3	2.63
7.4	19.76	254.4	2.62
7.45	20.17	286.5	2.63
7.5	20.18	290.4	2.62
7.55	20.11	277.6	2.7
7.6	20.56	255.6	2.7
7.65	21.55	245.2	2.7
7.7	22.37	243	2.7
7.75	22.67	253.5	2.71	39.01
7.8	23.32	258.9	2.79
7.85	23.59	275.9	2.79
7.9	24.03	303.6	2.79
7.95	24.42	341.7	2.79	
8	23.98	368.5	2.79	
8.05	22.03	335.1	2.83	
8.1	21.06	278.6	2.83	
8.15	20.32	241.8	2.83	
8.2	19.29	215	2.83	
8.25	18.75	205.1	2.83	
8.3	19.14	213.7	2.83	
8.35	20.04	245.5	2.83	
8.4	20.34	286.8	2.95	
8.45	19.68	294.7	2.96	
8.5	19	278.4	3.05	
8.55	18.23	251.6	3.05	
8.6	18.07	217.6	3.06	
8.65	18.56	211.6	3.07	
8.7	19.75	198.6	3.08	
8.75	20.84	242.5	3.12
8.8	18.08	279.8	3.19
8.85	17.22	271.5	3.19
8.9	17.59	249.5	3.2
8.95	18.56	269.1	3.19
9	19.51	266.7	3.19
9.05	20.81	252.8	3.19
9.1	21.23	251.1	3.19
9.15	18.72	267	3.23
9.2	14.02	229.7	3.28
9.25	11.27	213	3.28
9.3	10.21	208.2	3.29
9.35	11.25	154.5	3.3
9.4	12.8	127.6	3.31
9.45	13.89	193.1	3.41
9.5	19.09	307.3	3.42
9.55	19.99	353	3.42	
9.6	15.45	181.1	3.44	
9.65	13.53	166.1	3.47	
9.7	12.68	193.8	3.5	
9.75	12.23	220	3.52	48.21
9.8	11.76	194.3	3.54	
9.85	11.5	212.4	3.54	
9.9	12.35	239.2	3.55	
9.95	12.99	199.4	3.54	
10	13.23	245.1	3.55	
10.05	13.23	257.2	3.63	
10.1	13.51	290.1	3.64	
10.15	13.41	245	3.64	
10.2	12.21	140.4	3.64	
10.25	9.05	73.1	3.65	
10.3	6.45	25.5	3.65	
10.35	4.4	20.6	3.74
10.4	3.5	22.7	3.77
10.45	3.66	19.3	3.76
10.5	3.64	78.9	3.8
10.55	4.81	153.2	3.82
10.6	7.46	175.3	3.81
10.65	8.21	217.3	3.8
10.7	9.35	196.8	3.82
10.75	8.69	191.2	3.82
10.8	7.42	156.1	3.84
10.85	6.46	46.3	3.88
10.9	4.86	43.5	3.89
10.95	4.01	57.7	3.9
11	3.73	108.3	3.91
11.05	3.5	124.3	3.91
11.1	3.18	130.1	3.92
11.15	3.25	129.7	3.95
11.2	3.54	166.7	3.98
11.25	4.37	239.9	4.02
11.3	5.95	341.8	4.03
11.35	8.23	420.1	4.05
11.4	11.9	490	4.06
11.45	15.78	504.1	4.06
11.5	18.34	476.8	4.07
11.55	20.04	443.1	4.07
11.6	21.05	408.2	4.07
11.65	21.74	425.9	4.08
11.7	22.67	498.4	4.08
11.75	23.85	534.7	4.09	55.43
11.8	24.79	533.6	4.09
11.85	25.58	555.4	4.39
11.9	26.61	575.7	4.39
11.95	27.58	458.8	4.39	
12	27.62	527.4	4.4	
12.05	27.38	463.9	4.41	
12.1	26.2	424.6	4.42	
12.15	24.1	373.5	4.43	
12.2	20.72	364.6	4.43	
12.25	17.01	376.3	4.43	
12.3	16.41	400.1	4.44	
12.35	18.07	318.2	4.46	
12.4	17.14	148.5	4.47	
12.45	13.54	148.9	4.57	
12.5	10.73	248.2	4.53	
12.55	11.69	339.2	4.51	
12.6	12.21	388.2	4.51	
12.65	11.64	378	4.86	
12.7	14.08	372.1	4.67	
12.75	15	328.5	4.54
12.8	17.41	267.4	4.54
12.85	20.25	228.1	4.54
12.9	20.49	262.6	4.54
12.95	16.4	310.3	4.51
13	20.99	268.7	4.54
13.05	21.9	234.4	4.53
13.1	21.18	222	4.46
13.15	17.01	145.9	4.5
13.2	13.75	75.9	4.5
13.25	11.67	118.1	4.5
13.3	11.78	133.6	4.52
13.35	13.62	213.8	4.52
13.4	16.32	321.4	4.53
13.45	19.82	404.7	4.52
13.5	22.94	433.8	4.73
13.55	24.73	405	4.72	
13.6	25	400	4.73	
13.65	24.25	417.2	4.73	
13.7	23.44	456.5	4.72	
13.75	23.87	479.8	4.73	62.2	
13.8	25.69	534.2	4.72	
13.85	28.18	484	4.72	
13.9	29.96	533.4	4.72	
13.95	31.44	480.9	4.73	
14	32.64	544.4	4.72	
14.05	32.36	538.8	4.73	
14.1	30.58	554.7	4.73	
14.15	28.95	560.8	4.73	
14.2	30.34	593.3	4.73	
14.25	33.41	616	4.73	
14.3	35.19	624.6	4.72	
14.35	35.34	648.6	4.72
14.4	35.72	630.6	4.73
14.45	35.37	633.7	4.73
14.5	34.56	623.6	4.73
14.55	32.76	609.8	4.73
14.6	30.65	577.2	4.73
14.65	28.9	438.8	4.86
14.7	28.83	428	4.88
14.75	32.18	424.1	4.9
14.8	34.96	568	4.92
14.85	35.22	524.1	4.93
14.9	34.32	485	4.93
14.95	33.31	490.5	4.93
15	33.03	552.7	5.01
15.05	31.2	455.9	5.05
15.1	23.09	473.8	5.09
15.15	21.96	464.2	5.11
15.2	23.91	525.9	5.17
15.25	26.34	537.2	5.23
15.3	29.84	556.6	5.24
15.35	32.21	575.5	5.24
15.4	33.35	585.1	5.25
15.45	34.04	552.4	5.25
15.5	34.22	595.2	5.25
15.55	33.13	619.5	5.29
15.6	30.85	620.8	5.29
15.65	29.16	597.7	5.29
15.7	28.23	500	5.29
15.75	28.28	425.4	5.3	68.97
15.8	28.5	442.3	5.3
15.85	28.91	413	5.3
15.9	30.2	378.7	5.3
15.95	30.21	437.6	5.3	
16	29.35	464.1	5.29	
16.05	29.41	406.9	5.25	
16.1	28.52	390	5.25	
16.15	26.97	390	5.25	
16.2	25.67	370.3	5.25	
16.25	25.26	341.9	5.25	
16.3	25.91	332.5	5.25	
16.35	28.8	357.9	5.25	
16.4	31.8	429.9	5.25	
16.45	33.91	520.5	5.25	
16.5	33.77	558.2	5.26	
16.55	33.7	568.3	5.28	
16.6	32.74	604.2	5.28	
16.65	32.18	648.8	5.29	
16.7	31.67	598.8	5.31	
16.75	31.16	596.2	5.39
16.8	30.82	603.8	5.39
16.85	31.26	628.7	5.39
16.9	31.29	612.2	5.39
16.95	30.89	611	5.38
17	32.77	613.9	5.38
17.05	34.2	544.1	5.39
17.1	34.76	570.7	5.39
17.15	32.38	573.4	5.4
17.2	28.3	519.7	5.4
17.25	25.51	435.3	5.39
17.3	23.85	404.5	5.4
17.35	20.63	497.1	5.4
17.4	13.08	343	5.4
17.45	7.05	210.7	4.96
17.5	4.34	132.6	5.54
17.55	3.69	93	5.64	
17.6	3.27	52.5	5.4	
17.65	3.63	48.8	5.25	
17.7	3.36	71.8	5.11	
17.75	3.46	95.3	5.65	76.47
17.8	3.47	104.1	5.39	
17.85	3.43	105.5	5.39	
17.9	3.52	137.7	5.4	
17.95	3.54	141.6	5.4	
18	3.66	150.8	5.41	
18.05	3.36	143.6	5.42	
18.1	3.29	118.2	5.44	
18.15	3.17	112.7	5.47	
18.2	3.17	117.3	5.47	
18.25	3.04	118.8	5.48	
18.3	3.15	121.4	5.53	
18.35	3.24	121	5.54
18.4	3.53	140	5.54
18.45	3.77	180	5.57
18.5	3.79	188.9	5.59
18.55	3.91	178.1	5.57
18.6	3.61	148.2	5.59
18.65	3.69	124.8	5.58
18.7	3.63	115.1	5.6
18.75	3.92	114.2	5.58
18.8	3.72	132.5	5.6
18.85	3.7	118.3	5.6
18.9	3.78	116.2	5.59
18.95	4.44	158.8	5.57
19	5.82	229	5.64
19.05	5.67	254.3	5.64
19.1	5.08	225.9	5.65
19.15	4.69	183.5	5.71
19.2	4.02	144.2	5.72
19.25	3.79	117.8	5.72
19.3	3.73	128.2	5.75
19.35	3.54	123.3	5.76
19.4	3.53	126.2	5.78
19.45	3.49	124.9	5.82
19.5	3.6	125.8	5.83
19.55	3.58	117.9	5.83
19.6	3.5	112.9	5.84
19.65	3.32	105.8	5.86
19.7	3.3	100.5	5.85
19.75	3.18	108.7	5.87	84.09
19.8	3.36	130.3	5.89
19.85	3.51	147.8	6.01
19.9	3.42	160.9	6.02
19.95	3.69	167.7	6.03	
20	3.67	179	6.04	
20.05	3.63	168.3	6.09	
20.1	3.77	159.7	6.09	
20.15	3.56	143.9	6.1	
20.2	3.26	122.6	6.11	
20.25	3.25	110.5	6.11	
20.3	3.38	105.5	6.21	
20.35	3.45	122	6.29	
20.4	3.79	130.2	6.29	
20.45	4.21	139.4	6.3	
20.5	4.66	126.7	6.3	
20.55	4.03	137.1	6.3	
20.6	3.82	149.4	6.31	
20.65	3.78	165.8	6.32	
20.7	3.75	174.3	6.32	
20.75	3.75	177.3	6.35
20.8	3.68	157.9	6.36
20.85	3.65	145.6	6.37
20.9	3.91	141.2	6.36
20.95	3.68	155.3	6.38
21	3.65	157	6.37
21.05	3.69	158.2	6.38
21.1	3.68	146	6.37
21.15	3.64	128.1	6.37
21.2	3.34	108.6	6.39
21.25	3.47	111.1	6.38
21.3	3.48	112.7	6.39
21.35	3.56	119.5	6.4
21.4	3.46	115.7	6.49
21.45	3.46	107	6.49
21.5	3.48	88.9	6.5
21.55	3.42	83.5	6.5	
21.6	3.4	79.3	6.51	
21.65	3.39	82.3	6.51	
21.7	3.38	82.4	6.55	
21.75	3.5	82.5	6.56	90.51	
21.8	3.64	29.5	6.55	
21.85	3.59	87.1	6.56	
21.9	2.59	93.2	6.56	
21.95	3.71	31	6.57	
22	3.74	95	6.57	
22.05	2.45	105.5	6.59	
22.1	3.7	109.9	6.6	
22.15	3.63	100.6	6.59	
22.2	3.4	86.8	6.59	
22.25	3.34	79.1	6.6	
22.3	3.4	82.1	6.6	
22.35	3.45	77.2	6.6
22.4	3.49	83.4	6.6
22.45	3.46	101.5	6.61
22.5	3.65	131.4	6.6
22.55	3.81	138.2	6.6
22.6	3.84	122.7	6.61
22.65	3.87	98.7	6.6
22.7	4.04	98.4	6.61
22.75	4.24	118	6.61
22.8	4.23	127.2	6.62
22.85	4	106.9	6.63
22.9	3.72	83.5	6.7
22.95	3.56	76.8	6.71
23	3.57	88.5	6.71
23.05	3.74	105	6.77
23.1	3.79	108.1	6.78
23.15	3.84	104.1	6.79
23.2	3.95	113.7	6.79
23.25	3.9	120.9	6.91
23.3	3.9	125.5	6.91
23.35	4.05	142.6	6.9
23.4	4.06	157.4	6.91
23.45	4.16	157.1	6.92
23.5	4.1	146.9	6.91
23.55	4.05	135.9	6.92
23.6	3.88	113.8	6.92
23.65	3.77	114.4	6.92
23.7	3.75	120.2	6.93
23.75	3.75	121.2	6.93	97.31
23.8	3.68	116.3	6.94
23.85	3.73	127.4	7.08
23.9	3.74	139.6	7.09
23.95	3.75	-32768	7.13	
24	3.6	-32768	7.15	
