File name:	ALC020
Date:	1/25/2001
UTM Grid Zone:	10S
"UTM-X, m:"	559390
"UTM-Y, m:"	4183146
Datum:	1927 NAD
"Elevation, m:"	1.5
"Total depth, m:"	13.15
"Water depth, m:"	1.1
City:	Alameda
County:	Alameda
State:	CA
USGS Quadrangle:	Oakland West
Cone No.:	660
Source:	USGS
"Surface horiz. offset (seismic source to CPT), m:"	0.96

Depth (m)	Tip Resistance (MN/m2)	Sleeve Friction (kN/m2)	Inclination (degree)	S-wave travel time (ms)
0.05	1.65	16.4	0.05	
0.1	3.31	160.3	0.05	
0.15	5.54	241.9	0.05	
0.2	8.04	234.2	0.06	
0.25	8.86	264.8	0.06	
0.3	12.81	251.1	0.09	
0.35	8.41	175.2	0.12	
0.4	5.39	66.1	0.12	
0.45	6.62	70.1	0.12	
0.5	5.85	104.6	0.14	
0.55	5.05	73.9	0.18	
0.6	4.08	63.6	0.25	
0.65	3.58	60.6	0.32	
0.7	3.41	68.3	0.35	
0.75	1.78	57.2	0.35
0.8	1.49	47.3	0.39
0.85	1.48	37.4	0.41
0.9	1.24	28	0.41
0.95	1.02	22.1	0.43
1	1.24	26.6	0.49
1.05	1.11	28	0.5
1.1	1.11	23.4	0.5
1.15	1.18	24.6	0.51
1.2	1.22	16.2	0.49
1.25	1.72	13.7	0.48
1.3	2.47	14	0.49
1.35	3.32	16.7	0.55
1.4	3.33	20.6	0.55
1.45	2.58	23	0.54
1.5	1.74	24	0.54
1.55	1.37	18.6	0.55	
1.6	1	15	0.56	
1.65	0.84	21.2	0.57	
1.7	1.12	21.5	0.55	
1.75	1.87	13.5	0.56	10.02
1.8	3.04	8	0.55	
1.85	2.64	6	0.56	
1.9	2.46	11	0.56	
1.95	2.68	12.6	0.56	
2	2.58	15.8	0.56	
2.05	3.44	15.2	0.56	
2.1	4.03	13.9	0.56	
2.15	3.57	11.3	0.55	
2.2	3.23	9.5	0.57	
2.25	3.35	27.7	0.55	
2.3	2	46.2	0.56	
2.35	1.08	39.4	0.58
2.4	6.1	50.4	0.57
2.45	8.71	70.7	0.59
2.5	9.48	80.2	0.57
2.55	9.67	77.6	0.57
2.6	10.36	76.9	0.57
2.65	10.96	65.1	0.57
2.7	10.96	74.7	0.58
2.75	10.8	77.5	0.57
2.8	10.75	74	0.57
2.85	10.35	65.9	0.58
2.9	11.34	71.7	0.59
2.95	11.11	67.5	0.58
3	10.6	64.4	0.58
3.05	10.16	70.8	0.58
3.1	9.56	67	0.58
3.15	9.36	62.2	0.71
3.2	9.01	47.4	0.71
3.25	7.58	37.6	0.72
3.3	5.51	39.6	0.71
3.35	5.05	34.1	0.72
3.4	3.99	19.6	0.71
3.45	4.32	22.9	0.72
3.5	3.63	16.2	0.71
3.55	3.65	46	0.72
3.6	2.26	23.8	0.72
3.65	1.96	10.3	0.72
3.7	3.14	18.4	0.71
3.75	1.78	24.6	0.71	23.42
3.8	1.1	17.8	0.73
3.85	1.04	10.7	0.72
3.9	3.9	11.6	0.98
3.95	4.79	15.4	0.96	
4	4.33	37.2	0.95	
4.05	2.48	24.6	0.95	
4.1	1.22	26.3	0.96	
4.15	6.84	38.3	0.95	
4.2	7.83	43.5	0.93	
4.25	7.17	43.2	0.94	
4.3	6.36	34.2	0.95	
4.35	6.04	24.4	1.02	
4.4	6.12	27.6	0.96	
4.45	6.32	49.6	0.97	
4.5	5.75	55.1	1.01	
4.55	4.57	59.2	1.04	
4.6	5.96	43.8	1.04	
4.65	6.84	39.5	1.02	
4.7	6.96	40.5	0.94	
4.75	6.87	46.4	0.94
4.8	7.05	48.5	0.94
4.85	7.15	50.8	0.94
4.9	7.88	48.7	0.94
4.95	8.14	40.6	0.95
5	8.38	48	0.94
5.05	9.57	64.8	0.95
5.1	10.26	73.1	1
5.15	10.77	75	1
5.2	11.38	85.1	1.01
5.25	11.53	89.2	1.01
5.3	10.9	86.2	1.02
5.35	10.42	80.3	1
5.4	9.11	73.1	1
5.45	8.57	65.1	1.01
5.5	8.83	58.7	1.01
5.55	8.24	48.1	1.01	
5.6	7.64	40.5	1	
5.65	7.32	48.7	1.02	
5.7	5.36	42.5	1.03	
5.75	2.9	46.4	1.46	34.76	
5.8	1.22	29.9	1.28	
5.85	0.84	11.9	1.27	
5.9	0.59	-0.3	0.82	
5.95	0.68	1	1.21	
6	0.93	3.8	1.33	
6.05	1.47	3.4	1.31	
6.1	1.02	5.9	1.34	
6.15	0.71	3	1.27	
6.2	0.43	-0.7	1.21	
6.25	0.49	-2.5	1.31	
6.3	0.46	-1.1	1.31	
6.35	0.36	-1	1.32
6.4	0.55	-1.5	1.31
6.45	0.55	-0.9	1.31
6.5	0.46	-0.6	1.32
6.55	0.53	-0.3	1.31
6.6	0.57	0.4	1.3
6.65	0.6	-0.2	1.32
6.7	0.57	-1.1	1.35
6.75	0.64	0.3	1.34
6.8	0.39	1.1	1.36
6.85	0.78	1.7	1.35
6.9	0.87	4	1.35
6.95	0.81	-1.9	1.34
7	0.76	-2.3	1.35
7.05	0.46	-2.7	1.35
7.1	0.49	-1.5	1.34
7.15	0.46	-1	1.35
7.2	0.57	-1.8	1.56
7.25	0.62	-0.3	1.57
7.3	0.62	-0.9	1.58
7.35	0.74	-1.7	1.57
7.4	0.57	-2.3	1.58
7.45	0.58	-2	1.58
7.5	0.5	-2.8	1.58
7.55	0.61	-1.4	1.58
7.6	0.53	-0.9	1.58
7.65	0.75	-1.1	1.58
7.7	0.58	0.3	1.69
7.75	0.54	-0.8	1.69	48.68
7.8	0.57	-2.9	1.7
7.85	0.42	-1.8	1.71
7.9	0.57	-2.3	1.7
7.95	0.41	-0.8	1.71	
8	0.56	0.4	1.71	
8.05	0.62	0.7	1.71	
8.1	0.7	-0.9	1.71	
8.15	0.64	-1.4	1.72	
8.2	0.69	-2.8	1.71	
8.25	0.5	-0.4	1.78	
8.3	0.58	-2.1	1.78	
8.35	0.64	-0.1	1.79	
8.4	0.81	0	1.8	
8.45	0.7	-1.1	1.81	
8.5	0.71	3.4	1.78	
8.55	0.81	1.7	1.8	
8.6	1.24	18.9	1.78	
8.65	2.77	10.9	1.77	
8.7	2.92	21.8	1.87	
8.75	2.65	14	1.91
8.8	2.87	14.2	1.86
8.85	2.99	6.2	1.8
8.9	3.41	24.4	1.78
8.95	2.91	53.1	1.77
9	1.86	43.8	1.78
9.05	5.46	50.1	1.8
9.1	5.1	64.3	1.81
9.15	7.31	71.9	1.91
9.2	11.85	105.1	1.92
9.25	14.38	130.1	1.95
9.3	17.21	154.1	1.94
9.35	19.38	185.2	1.96
9.4	20.78	219.1	2.02
9.45	20.86	226.6	2.03
9.5	21.77	221.1	2.02
9.55	23.07	228.8	2.03	
9.6	24.19	233.4	2.03	
9.65	25.19	259.8	2.03	
9.7	24.46	248.3	2.03	
9.75	24.11	256.6	2.03	60.38
9.8	25.73	267.2	2.51	
9.85	25.74	278.3	2.57	
9.9	25.92	279.7	2.63	
9.95	25.5	255.2	2.65	
10	25.74	266	2.7	
10.05	25.72	271.4	2.71	
10.1	25.21	294.3	2.74	
10.15	23.37	278.8	2.74	
10.2	21.98	246	2.74	
10.25	22.04	209.7	2.75	
10.3	22.23	212.4	2.95	
10.35	21.89	236.7	2.95
10.4	20.41	240.2	2.95
10.45	19.87	208.9	2.97
10.5	20.76	133.3	3.06
10.55	21.41	149.3	3.08
10.6	20.47	188.1	3.09
10.65	20.47	197.1	3.13
10.7	20.85	189.9	3.16
10.75	20.45	190	3.22
10.8	20.2	195.9	3.24
10.85	19.41	210.5	3.3
10.9	17.31	194.1	3.35
10.95	16.58	151.3	3.39
11	14.92	103.7	3.39
11.05	12.91	86.4	3.41
11.1	11	133.7	3.52
11.15	10.29	123.9	3.54
11.2	9.7	160.4	3.62
11.25	7.51	307.5	3.74
11.3	13.01	507.5	3.72
11.35	16.06	833.6	3.8
11.4	19.15	973.7	3.94
11.45	18.69	112.5	4.02
11.5	17.5	374.3	4.16
11.55	6.08	991.6	4.11
11.6	9.56	880.5	4.18
11.65	11.84	748.3	4.26
11.7	14.3	729	4.26
11.75	16.64	884.9	4.32	66.82
11.8	16.28	899.9	4.31
11.85	16.79	755.3	4.32
11.9	18.08	794.1	4.32
11.95	14.62	734.8	4.32	
12	19.09	850.2	4.33	
12.05	22.61	880.2	4.82	
12.1	26.01	852.2	4.85	
12.15	28.12	689.2	4.85	
12.2	26.77	687.2	4.84	
12.25	24.92	712.2	4.83	
12.3	25.15	728.2	4.73	
12.35	27.01	716.8	4.73	
12.4	29.04	712.4	4.67	
12.45	29.61	686.4	4.66	
12.5	29.45	632.3	4.66	
12.55	28.57	670.4	4.67	
12.6	26.58	870.5	4.66	
12.65	22.62	811.9	4.68	
12.7	21.05	836.9	4.72	
12.75	19.4	866.4	4.76	
12.8	19.48	936.3	4.77	
12.85	19.81	1027.6	4.79	
12.9	20.56	1124.8	4.79	69.12
12.95	18.03	1110.2	4.92	
13	21.74	1244.1	4.92	
13.05	26.37	-32768	4.94	
13.1	27.67	-32768	4.96	
13.15	30.88	-32768	5.01	